Degree,Laser Distance,Intensity,Error,Actual Distance
0,1011,69,0,1000
0,912,90,0,900
0,812,96,0,800
0,709,116,0,700
0,608,150,0,600
0,507,169,0,500
0,406,203,0,400
0,305,220,0,300
0,204,249,0,200
0,103,306,0,100
